# SAXS profile: number of points = 501, q_min = 0, q_max = 0.5, delta_q = 0.001
#    q    intensity 
0.00000    68462728.00000000 41715028.00000000 106882136.00000000 51397.03515625  3751696.25000000 2928488.25000000 
0.00100    68446880.00000000 41705332.00000000 106857456.00000000 51383.75781250  3750777.50000000 2927774.75000000 
0.00200    68400816.00000000 41676796.00000000 106783520.00000000 51343.67968750  3747962.50000000 2925591.00000000 
0.00300    68321600.00000000 41628644.00000000 106659864.00000000 51277.42187500  3743308.50000000 2921987.25000000 
0.00400    68211368.00000000 41561716.00000000 106488640.00000000 51184.53515625  3736822.75000000 2916906.00000000 
0.00500    68069576.00000000 41475836.00000000 106267664.00000000 51065.46093750  3728466.25000000 2910412.75000000 
0.00600    67895400.00000000 41370868.00000000 105998880.00000000 50920.49609375  3718321.00000000 2902491.75000000 
0.00700    67691944.00000000 41247344.00000000 105682464.00000000 50749.69140625  3706331.00000000 2893158.75000000 
0.00800    67458304.00000000 41105888.00000000 105317128.00000000 50553.44921875  3692590.50000000 2882440.00000000 
0.00900    67195512.00000000 40946004.00000000 104906344.00000000 50332.11328125  3677063.75000000 2870359.00000000 
0.01000    66901808.00000000 40767920.00000000 104450288.00000000 50085.96093750  3659839.25000000 2856912.00000000 
0.01100    66579488.00000000 40572520.00000000 103948368.00000000 49815.74218750  3640868.25000000 2842158.00000000 
0.01200    66229032.00000000 40359916.00000000 103401736.00000000 49521.73828125  3620273.50000000 2826088.25000000 
0.01300    65850792.00000000 40130472.00000000 102812352.00000000 49204.39453125  3598009.50000000 2808755.00000000 
0.01400    65444760.00000000 39884200.00000000 102180528.00000000 48864.46875000  3574174.75000000 2790158.00000000 
0.01500    65012844.00000000 39622124.00000000 101507704.00000000 48502.19140625  3548757.25000000 2770369.25000000 
0.01600    64554812.00000000 39344348.00000000 100794360.00000000 48118.60156250  3521854.75000000 2749399.75000000 
0.01700    64072008.00000000 39051180.00000000 100041848.00000000 47714.23046875  3493467.00000000 2727281.75000000 
0.01800    63564924.00000000 38743772.00000000 99251800.00000000 47289.67578125  3463684.50000000 2704064.00000000 
0.01900    63034152.00000000 38421788.00000000 98425600.00000000 46845.98828125  3432537.75000000 2679775.00000000 
0.02000    62481364.00000000 38086328.00000000 97563504.00000000 46383.34765625  3400068.25000000 2654482.50000000 
0.02100    61906536.00000000 37737564.00000000 96668464.00000000 45903.26562500  3366321.25000000 2628198.75000000 
0.02200    61311456.00000000 37376468.00000000 95741272.00000000 45405.92578125  3331393.00000000 2600968.25000000 
0.02300    60696592.00000000 37003348.00000000 94783304.00000000 44892.56250000  3295313.00000000 2572851.25000000 
0.02400    60063244.00000000 36618964.00000000 93796456.00000000 44363.89453125  3258144.00000000 2543875.00000000 
0.02500    59411512.00000000 36223732.00000000 92781640.00000000 43820.36328125  3219965.00000000 2514108.75000000 
0.02600    58743812.00000000 35818428.00000000 91741096.00000000 43263.94140625  3180777.00000000 2483599.75000000 
0.02700    58060528.00000000 35403780.00000000 90676592.00000000 42694.29296875  3140743.25000000 2452367.00000000 
0.02800    57362268.00000000 34979968.00000000 89588576.00000000 42113.33984375  3099835.25000000 2420489.25000000 
0.02900    56650796.00000000 34548384.00000000 88479928.00000000 41521.26562500  3058165.75000000 2388005.50000000 
0.03000    55926924.00000000 34108848.00000000 87352256.00000000 40919.45703125  3015780.00000000 2354975.25000000 
0.03100    55191948.00000000 33662860.00000000 86207152.00000000 40308.55078125  2972743.75000000 2321433.50000000 
0.03200    54446836.00000000 33210546.00000000 85046064.00000000 39689.50781250  2929126.75000000 2287436.00000000 
0.03300    53692620.00000000 32752770.00000000 83870504.00000000 39063.47265625  2885022.25000000 2253057.75000000 
0.03400    52930368.00000000 32290042.00000000 82682920.00000000 38431.42187500  2840440.50000000 2218303.25000000 
0.03500    52161356.00000000 31823178.00000000 81484576.00000000 37794.06250000  2795472.75000000 2183249.50000000 
0.03600    51386552.00000000 31352824.00000000 80277296.00000000 37152.21484375  2750203.00000000 2147963.00000000 
0.03700    50607060.00000000 30879756.00000000 79062760.00000000 36507.12890625  2704660.75000000 2112459.00000000 
0.03800    49823968.00000000 30404486.00000000 77842280.00000000 35859.55078125  2658939.00000000 2076810.00000000 
0.03900    49038552.00000000 29927478.00000000 76618360.00000000 35210.31640625  2613064.50000000 2041061.25000000 
0.04000    48251324.00000000 29449712.00000000 75391976.00000000 34560.39843750  2567144.25000000 2005257.25000000 
0.04100    47463956.00000000 28971548.00000000 74164872.00000000 33910.37109375  2521211.00000000 1969439.75000000 
0.04200    46677304.00000000 28493730.00000000 72938384.00000000 33261.52734375  2475334.50000000 1933662.37500000 
0.04300    45892128.00000000 28017058.00000000 71714480.00000000 32614.48828125  2429532.25000000 1897979.37500000 
0.04400    45109432.00000000 27541794.00000000 70495072.00000000 31969.78515625  2383932.25000000 1862418.62500000 
0.04500    44330276.00000000 27068714.00000000 69280784.00000000 31328.56835938  2338550.25000000 1827028.75000000 
0.04600    43555456.00000000 26598310.00000000 68073552.00000000 30691.36328125  2293429.25000000 1791853.12500000 
0.04700    42786356.00000000 26131124.00000000 66874320.00000000 30058.99414062  2248628.25000000 1756920.50000000 
0.04800    42023116.00000000 25667552.00000000 65684828.00000000 29432.05078125  2204210.75000000 1722287.50000000 
0.04900    41266940.00000000 25208354.00000000 64506140.00000000 28811.21093750  2160211.25000000 1687984.37500000 
0.05000    40518736.00000000 24754062.00000000 63339964.00000000 28197.27734375  2116677.75000000 1654048.00000000 
0.05100    39779204.00000000 24304710.00000000 62186968.00000000 27590.54882812  2073672.12500000 1620507.62500000 
0.05200    39048464.00000000 23861146.00000000 61048436.00000000 26991.83789062  2031210.00000000 1587391.12500000 
0.05300    38328252.00000000 23423598.00000000 59925660.00000000 26401.57812500  1989334.00000000 1554743.50000000 
0.05400    37618124.00000000 22992584.00000000 58819448.00000000 25820.38476562  1948090.12500000 1522581.75000000 
0.05500    36919692.00000000 22568208.00000000 57730876.00000000 25248.53320312  1907505.25000000 1490946.37500000 
0.05600    36233168.00000000 22151312.00000000 56660684.00000000 24686.62890625  1867619.12500000 1459845.50000000 
0.05700    35558680.00000000 21741930.00000000 55609864.00000000 24135.04101562  1828464.75000000 1429304.00000000 
0.05800    34897444.00000000 21340196.00000000 54579060.00000000 23594.01953125  1790047.50000000 1399353.50000000 
0.05900    34249372.00000000 20946704.00000000 53569164.00000000 23063.85156250  1752414.25000000 1370019.25000000 
0.06000    33615028.00000000 20561632.00000000 52580740.00000000 22545.24414062  1715580.62500000 1341297.50000000 
0.06100    32995072.00000000 20185318.00000000 51614160.00000000 22037.92382812  1679566.25000000 1313214.00000000 
0.06200    32389320.00000000 19817310.00000000 50670284.00000000 21542.50585938  1644388.50000000 1285786.00000000 
0.06300    31798570.00000000 19458724.00000000 49749580.00000000 21058.90039062  1610070.00000000 1259024.75000000 
0.06400    31222518.00000000 19109128.00000000 48851476.00000000 20587.31250000  1576599.25000000 1232942.12500000 
0.06500    30661732.00000000 18768828.00000000 47978008.00000000 20128.11132812  1544016.75000000 1207531.37500000 
0.06600    30116358.00000000 18437820.00000000 47128236.00000000 19680.99609375  1512308.75000000 1182817.62500000 
0.06700    29586386.00000000 18116258.00000000 46302632.00000000 19246.56445312  1481491.62500000 1158804.25000000 
0.06800    29071836.00000000 17804336.00000000 45501192.00000000 18824.09375000  1451566.62500000 1135467.25000000 
0.06900    28573208.00000000 17501820.00000000 44724216.00000000 18414.34765625  1422536.62500000 1112850.25000000 
0.07000    28089906.00000000 17208806.00000000 43971712.00000000 18016.61914062  1394394.12500000 1090921.62500000 
0.07100    27622470.00000000 16925348.00000000 43243816.00000000 17631.35937500  1367136.87500000 1069684.50000000 
0.07200    27170222.00000000 16651335.00000000 42540016.00000000 17258.02539062  1340772.12500000 1049127.87500000 
0.07300    26733710.00000000 16386886.00000000 41860328.00000000 16897.06835938  1315281.00000000 1029265.25000000 
0.07400    26312524.00000000 16131461.00000000 41204560.00000000 16547.90039062  1290652.25000000 1010075.00000000 
0.07500    25906256.00000000 15885721.00000000 40572372.00000000 16210.25781250  1266878.12500000 991563.56250000 
0.07600    25514990.00000000 15649027.00000000 39963616.00000000 15884.28222656  1243951.75000000 973706.68750000 
0.07700    25138370.00000000 15421202.00000000 39377900.00000000 15569.71777344  1221842.75000000 956495.87500000 
0.07800    24776198.00000000 15202195.00000000 38814732.00000000 15266.15136719  1200557.37500000 939923.62500000 
0.07900    24428310.00000000 14991942.00000000 38273628.00000000 14973.48925781  1180062.87500000 923968.93750000 
0.08000    24094272.00000000 14790215.00000000 37754340.00000000 14691.33789062  1160354.00000000 908625.75000000 
0.08100    23773906.00000000 14596616.00000000 37256420.00000000 14419.39453125  1141396.12500000 893876.56250000 
0.08200    23466542.00000000 14411242.00000000 36778740.00000000 14157.56152344  1123166.37500000 879693.81250000 
0.08300    23171942.00000000 14233729.00000000 36321116.00000000 13905.25000000  1105653.75000000 866077.50000000 
0.08400    22889662.00000000 14063692.00000000 35883300.00000000 13662.29101562  1088837.00000000 852997.25000000 
0.08500    22619550.00000000 13901111.00000000 35464112.00000000 13428.39941406  1072688.00000000 840440.68750000 
0.08600    22360884.00000000 13745590.00000000 35062680.00000000 13203.17968750  1057163.00000000 828383.75000000 
0.08700    22113232.00000000 13596892.00000000 34679116.00000000 12986.22558594  1042274.43750000 816808.25000000 
0.08800    21876316.00000000 13454689.00000000 34311816.00000000 12777.12304688  1027956.25000000 805696.00000000 
0.08900    21649566.00000000 13318794.00000000 33960892.00000000 12575.63769531  1014212.00000000 795022.43750000 
0.09000    21432590.00000000 13188908.00000000 33624972.00000000 12381.35644531  1001002.12500000 784770.37500000 
0.09100    21224668.00000000 13064627.00000000 33303688.00000000 12193.94921875  988296.56250000 774910.06250000 
0.09200    21025688.00000000 12945704.00000000 32995598.00000000 12013.03222656  976069.31250000 765431.06250000 
0.09300    20834852.00000000 12831902.00000000 32700936.00000000 11838.09765625  964307.31250000 756309.75000000 
0.09400    20651684.00000000 12722731.00000000 32418176.00000000 11668.95898438  952955.56250000 747518.12500000 
0.09500    20475676.00000000 12618121.00000000 32146870.00000000 11505.11718750  942009.18750000 739034.25000000 
0.09600    20306506.00000000 12517678.00000000 31886052.00000000 11346.37109375  931424.31250000 730842.43750000 
0.09700    20143682.00000000 12421042.00000000 31635132.00000000 11192.22363281  921200.06250000 722922.06250000 
0.09800    19986406.00000000 12327975.00000000 31393134.00000000 11042.48730469  911282.00000000 715252.18750000 
0.09900    19834498.00000000 12238171.00000000 31159406.00000000 10896.65136719  901664.12500000 707805.31250000 
0.10000    19687270.00000000 12151340.00000000 30933064.00000000 10754.44824219  892301.68750000 700568.00000000 
0.10100    19544374.00000000 12067011.00000000 30713662.00000000 10615.59667969  883176.75000000 693518.00000000 
0.10200    19405498.00000000 11985285.00000000 30500340.00000000 10479.75097656  874273.25000000 686641.31250000 
0.10300    19269812.00000000 11905451.00000000 30292302.00000000 10346.64257812  865558.56250000 679902.87500000 
0.10400    19137070.00000000 11827528.00000000 30088708.00000000 10215.92480469  857015.25000000 673298.87500000 
0.10500    19007142.00000000 11751157.00000000 29889334.00000000 10087.28125000  848617.00000000 666813.12500000 
0.10600    18878934.00000000 11675994.00000000 29693020.00000000 9960.62890625   840335.43750000 660421.00000000 
0.10700    18752620.00000000 11601896.00000000 29499408.00000000 9835.56445312   832159.12500000 654110.50000000 
0.10800    18627268.00000000 11528619.00000000 29307658.00000000 9711.87011719   824070.12500000 647860.75000000 
0.10900    18503104.00000000 11455879.00000000 29117478.00000000 9589.29589844   816042.18750000 641662.93750000 
0.11000    18379416.00000000 11383533.00000000 28928216.00000000 9467.76855469   808065.87500000 635503.93750000 
0.11100    18256044.00000000 11311197.00000000 28739010.00000000 9346.99023438   800114.12500000 629362.06250000 
0.11200    18132326.00000000 11238896.00000000 28549908.00000000 9226.69726562   792177.87500000 623231.62500000 
0.11300    18008254.00000000 11166289.00000000 28360020.00000000 9106.93359375   784243.56250000 617101.75000000 
0.11400    17883514.00000000 11093155.00000000 28168962.00000000 8987.35546875   776296.18750000 610957.68750000 
0.11500    17757960.00000000 11019490.00000000 27976294.00000000 8867.96777344   768319.25000000 604791.37500000 
0.11600    17631052.00000000 10944992.00000000 27781832.00000000 8748.66699219   760305.18750000 598596.68750000 
0.11700    17502546.00000000 10869593.00000000 27584910.00000000 8629.07128906   752242.31250000 592359.25000000 
0.11800    17372510.00000000 10793156.00000000 27385440.00000000 8509.37304688   744123.00000000 586076.68750000 
0.11900    17240562.00000000 10715517.00000000 27182806.00000000 8389.40234375   735933.62500000 579733.81250000 
0.12000    17106598.00000000 10636554.00000000 26977174.00000000 8269.06933594   727672.00000000 573335.75000000 
0.12100    16970448.00000000 10556285.00000000 26768006.00000000 8148.36474609   719333.31250000 566873.25000000 
0.12200    16831918.00000000 10474477.00000000 26554988.00000000 8027.23828125   710911.25000000 560342.12500000 
0.12300    16691033.00000000 10391151.00000000 26338074.00000000 7905.62255859   702397.75000000 553743.62500000 
0.12400    16547661.00000000 10306205.00000000 26117292.00000000 7783.51757812   693800.75000000 547063.87500000 
0.12500    16401546.00000000 10219586.00000000 25892272.00000000 7660.93310547   685100.06250000 540312.18750000 
0.12600    16252826.00000000 10131278.00000000 25663038.00000000 7537.88281250   676310.12500000 533487.00000000 
0.12700    16101392.00000000 10041207.00000000 25429388.00000000 7414.34960938   667426.93750000 526577.62500000 
0.12800    15947224.00000000 9949436.00000000 25191338.00000000 7290.39111328   658444.56250000 519593.75000000 
0.12900    15790332.00000000 9855859.00000000 24948772.00000000 7166.10009766   649369.43750000 512532.25000000 
0.13000    15630599.00000000 9760527.00000000 24701958.00000000 7041.39892578   640207.12500000 505399.43750000 
0.13100    15468286.00000000 9663437.00000000 24450870.00000000 6916.39062500   630955.56250000 498191.71875000 
0.13200    15303183.00000000 9564602.00000000 24195302.00000000 6791.18896484   621617.62500000 490918.84375000 
0.13300    15135499.00000000 9464086.00000000 23935612.00000000 6665.77880859   612203.06250000 483576.53125000 
0.13400    14965326.00000000 9361944.00000000 23671752.00000000 6540.29931641   602715.43750000 476172.96875000 
0.13500    14792579.00000000 9258145.00000000 23403966.00000000 6414.78466797   593146.37500000 468707.81250000 
0.13600    14617493.00000000 9152723.00000000 23132254.00000000 6289.36718750   583525.81250000 461192.25000000 
0.13700    14440146.00000000 9045925.00000000 22856740.00000000 6164.06201172   573840.00000000 453628.06250000 
0.13800    14260549.00000000 8937592.00000000 22577754.00000000 6039.00195312   564108.18750000 446019.53125000 
0.13900    14078901.00000000 8827933.00000000 22295446.00000000 5914.29833984   554332.06250000 438373.15625000 
0.14000    13895397.00000000 8716986.00000000 22009976.00000000 5790.03857422   544518.00000000 430697.25000000 
0.14100    13710120.00000000 8604822.00000000 21721658.00000000 5666.27587891   534677.18750000 422995.34375000 
0.14200    13523189.00000000 8491562.00000000 21430610.00000000 5543.16015625   524817.68750000 415272.75000000 
0.14300    13334787.00000000 8377236.00000000 21136968.00000000 5420.79687500   514948.37500000 407538.71875000 
0.14400    13145058.00000000 8261989.50000000 20841138.00000000 5299.19921875   505072.09375000 399797.03125000 
0.14500    12954167.00000000 8145961.50000000 20543300.00000000 5178.57470703   495203.71875000 392058.00000000 
0.14600    12762265.00000000 8029186.50000000 20243940.00000000 5058.93994141   485348.71875000 384325.31250000 
0.14700    12569592.00000000 7911822.50000000 19943038.00000000 4940.46044922   475514.96875000 376610.71875000 
0.14800    12376209.00000000 7793873.50000000 19640974.00000000 4823.11425781   465714.90625000 368910.15625000 
0.14900    12182385.00000000 7675557.00000000 19338098.00000000 4707.12451172   455951.25000000 361241.06250000 
0.15000    11988228.00000000 7556943.50000000 19034646.00000000 4592.51269531   446238.40625000 353604.81250000 
0.15100    11793998.00000000 7438171.50000000 18730566.00000000 4479.37402344   436579.37500000 346010.21875000 
0.15200    11599791.00000000 7319279.00000000 18426736.00000000 4367.77294922   426988.37500000 338466.84375000 
0.15300    11405842.00000000 7200393.00000000 18123038.00000000 4257.83203125   417467.34375000 330974.34375000 
0.15400    11212227.00000000 7081723.50000000 17819624.00000000 4149.53808594   408026.84375000 323540.31250000 
0.15500    11019234.00000000 6963216.50000000 17517146.00000000 4042.99829102   398675.53125000 316174.81250000 
0.15600    10826938.00000000 6845089.00000000 17215696.00000000 3938.34106445   389415.78125000 308879.71875000 
0.15700    10635556.00000000 6727399.50000000 16915548.00000000 3835.53466797   380261.50000000 301663.65625000 
0.15800    10445255.00000000 6610239.50000000 16616708.00000000 3734.66113281   371212.75000000 294525.21875000 
0.15900    10256107.00000000 6493721.50000000 16319867.00000000 3635.77294922   362280.12500000 287477.43750000 
0.16000    10068324.00000000 6377975.00000000 16024890.00000000 3538.92724609   353464.87500000 280522.18750000 
0.16100    9882163.00000000 6263049.50000000 15732282.00000000 3444.14111328   344780.50000000 273664.03125000 
0.16200    9697529.00000000 6149049.50000000 15442127.00000000 3351.44702148   336224.53125000 266903.43750000 
0.16300    9514757.00000000 6036061.00000000 15154607.00000000 3260.86718750   327803.37500000 260251.25000000 
0.16400    9333797.00000000 5924131.50000000 14869966.00000000 3172.45361328   319525.56250000 253705.50000000 
0.16500    9154873.00000000 5813367.00000000 14588427.00000000 3086.16577148   311389.90625000 247270.50000000 
0.16600    8978098.00000000 5703861.00000000 14310010.00000000 3002.04907227   303401.09375000 240951.32812500 
0.16700    8803597.00000000 5595622.00000000 14035017.00000000 2920.09741211   295562.06250000 234747.89062500 
0.16800    8631353.00000000 5488745.50000000 13763714.00000000 2840.31665039   287878.25000000 228662.23437500 
0.16900    8461578.00000000 5383343.00000000 13496054.00000000 2762.71899414   280349.71875000 222700.03125000 
0.17000    8294269.50000000 5279375.00000000 13232270.00000000 2687.27416992   272976.28125000 216857.93750000 
0.17100    8129556.00000000 5176928.00000000 12972440.00000000 2613.97412109   265765.25000000 211140.81250000 
0.17200    7967516.00000000 5076056.00000000 12716707.00000000 2542.78540039   258713.35937500 205548.03125000 
0.17300    7808136.50000000 4976851.50000000 12465150.00000000 2473.69750977   251820.68750000 200081.39062500 
0.17400    7651619.50000000 4879230.50000000 12217884.00000000 2406.70996094   245089.87500000 194741.40625000 
0.17500    7497793.00000000 4783299.50000000 11974938.00000000 2341.73437500   238519.37500000 189525.59375000 
0.17600    7346839.50000000 4689072.50000000 11736343.00000000 2278.79199219   232109.14062500 184435.01562500 
0.17700    7198781.50000000 4596606.00000000 11502279.00000000 2217.82690430   225858.54687500 179470.45312500 
0.17800    7053575.00000000 4505883.50000000 11272599.00000000 2158.78051758   219767.00000000 174630.48437500 
0.17900    6911319.50000000 4416873.50000000 11047589.00000000 2101.64599609   213833.06250000 169913.54687500 
0.18000    6771925.00000000 4329681.50000000 10826988.00000000 2046.35717773   208055.50000000 165319.45312500 
0.18100    6635493.50000000 4244252.50000000 10611049.00000000 1992.86962891   202431.57812500 160846.64062500 
0.18200    6501959.00000000 4160569.75000000 10399539.00000000 1941.12585449   196958.42187500 156492.81250000 
0.18300    6371326.00000000 4078670.00000000 10192679.00000000 1891.09143066   191633.65625000 152255.45312500 
0.18400    6243545.00000000 3998502.25000000 9990231.00000000 1842.73461914   186456.32812500 148133.51562500 
0.18500    6118684.00000000 3920141.25000000 9792394.00000000 1795.97009277   181422.98437500 144125.73437500 
0.18600    5996624.00000000 3843472.75000000 9598829.00000000 1750.74414062   176529.98437500 140227.17187500 
0.18700    5877366.50000000 3768529.75000000 9409746.00000000 1707.02844238   171772.90625000 136439.92187500 
0.18800    5760874.50000000 3695315.00000000 9224970.00000000 1664.75183105   167151.04687500 132756.09375000 
0.18900    5647132.50000000 3623768.75000000 9044550.00000000 1623.88195801   162661.09375000 129177.71875000 
0.19000    5536005.50000000 3553856.75000000 8868124.00000000 1584.32324219   158295.39062500 125697.32812500 
0.19100    5427593.50000000 3485609.50000000 8696146.00000000 1546.09777832   154057.26562500 122317.29687500 
0.19200    5321660.00000000 3418908.25000000 8527959.00000000 1509.06286621   149934.53125000 119029.82031250 
0.19300    5218329.50000000 3353822.75000000 8363879.50000000 1473.25231934   145931.95312500 115836.75781250 
0.19400    5117467.00000000 3290212.25000000 8203647.00000000 1438.55163574   142038.10937500 112730.32812500 
0.19500    5018960.50000000 3228112.50000000 8047192.00000000 1404.94934082   138255.84375000 109711.85156250 
0.19600    4922809.50000000 3167456.50000000 7894412.00000000 1372.38378906   134576.90625000 106775.99218750 
0.19700    4828953.50000000 3108228.50000000 7745255.50000000 1340.81518555   130998.89843750 103919.86718750 
0.19800    4737282.50000000 3050386.75000000 7599545.50000000 1310.19909668   127518.39843750 101141.31250000 
0.19900    4647803.00000000 2993886.50000000 7457334.50000000 1280.49841309   124133.21875000 98437.32812500  
0.20000    4560359.50000000 2938652.25000000 7318301.00000000 1251.65905762   120835.35937500 95804.28906250  
0.20100    4474916.00000000 2884695.75000000 7182494.00000000 1223.66540527   117626.27343750 93240.66406250  
0.20200    4391484.50000000 2831969.25000000 7049744.00000000 1196.45288086   114499.71093750 90742.83593750  
0.20300    4309881.50000000 2780409.25000000 6919968.00000000 1170.02355957   111452.98437500 88309.14843750  
0.20400    4230115.00000000 2729965.75000000 6793088.50000000 1144.30944824   108483.02343750 85935.26562500  
0.20500    4152057.25000000 2680623.75000000 6668905.00000000 1119.29821777   105585.92968750 83620.15625000  
0.20600    4075674.00000000 2632328.25000000 6547438.00000000 1094.95300293   102759.39843750 81361.01562500  
0.20700    4000919.75000000 2585032.75000000 6428471.00000000 1071.26916504   100000.67968750 79156.16406250  
0.20800    3927707.50000000 2538725.25000000 6312004.50000000 1048.20336914   97306.16406250  77001.07812500  
0.20900    3856037.75000000 2493381.75000000 6197962.50000000 1025.76464844   94675.97656250  74898.25000000  
0.21000    3785759.75000000 2448897.25000000 6086072.00000000 1003.88775635   92104.04687500  72841.27343750  
0.21100    3716830.50000000 2405281.50000000 5976404.00000000 982.57104492    89589.43750000  70829.74218750  
0.21200    3649242.50000000 2362493.00000000 5868820.00000000 961.82745361    87131.17187500  68862.21875000  
0.21300    3582899.25000000 2320489.50000000 5763194.00000000 941.61334229    84725.35937500  66936.88281250  
0.21400    3517787.50000000 2279251.50000000 5659533.50000000 921.92303467    82371.21875000  65052.94531250  
0.21500    3453848.25000000 2238742.75000000 5557717.00000000 902.76867676    80068.64843750  63208.69140625  
0.21600    3391002.25000000 2198919.75000000 5457601.00000000 884.10748291    77812.39062500  61401.44531250  
0.21700    3329233.00000000 2159778.25000000 5359229.00000000 865.96417236    75603.61718750  59631.91796875  
0.21800    3268492.00000000 2121298.25000000 5262498.00000000 848.31066895    73440.42968750  57897.78906250  
0.21900    3208717.75000000 2083387.62500000 5167231.00000000 831.14685059    71320.67968750  56198.06640625  
0.22000    3149905.00000000 2046092.37500000 5073512.00000000 814.46661377    69244.89843750  54532.42578125  
0.22100    3092033.00000000 2009375.00000000 4981316.00000000 798.30505371    67213.04687500  52901.72656250  
0.22200    3035052.00000000 1973193.25000000 4890437.00000000 782.61932373    65221.50390625  51302.87500000  
0.22300    2978888.25000000 1937554.00000000 4800905.00000000 767.41290283    63270.37890625  49735.97265625  
0.22400    2923570.75000000 1902413.62500000 4712708.50000000 752.69561768    61360.50781250  48200.59375000  
0.22500    2869099.25000000 1867793.12500000 4625791.00000000 738.48376465    59492.03906250  46697.30078125  
0.22600    2815374.25000000 1833630.62500000 4540098.50000000 724.74536133    57661.21484375  45224.37500000  
0.22700    2762453.50000000 1799966.25000000 4455628.50000000 711.52111816    55871.80078125  43783.00781250  
0.22800    2710258.50000000 1766735.00000000 4372290.50000000 698.77630615    54120.50781250  42371.62890625  
0.22900    2658774.50000000 1733968.12500000 4290113.00000000 686.53686523    52408.26171875  40990.77343750  
0.23000    2608079.75000000 1701631.00000000 4209061.50000000 674.79913330    50735.80468750  39640.66796875  
0.23100    2558074.75000000 1669735.87500000 4129108.75000000 663.56170654    49102.66796875  38321.33203125  
0.23200    2508725.00000000 1638251.12500000 4050282.25000000 652.82171631    47507.55078125  37031.73828125  
0.23300    2460127.75000000 1607206.12500000 3972546.25000000 642.58630371    45952.75000000  35773.03515625  
0.23400    2412200.25000000 1576565.00000000 3895878.75000000 632.86877441    44437.26562500  34545.02734375  
0.23500    2364945.75000000 1546329.87500000 3820232.75000000 623.63409424    42960.42187500  33347.06640625  
0.23600    2318415.25000000 1516528.75000000 3745692.50000000 614.92639160    41524.07031250  32180.90429688  
0.23700    2272549.25000000 1487123.00000000 3672208.25000000 606.71789551    40127.10156250  31045.25000000  
0.23800    2227378.00000000 1458141.25000000 3599785.00000000 599.00592041    38770.93359375  29941.25781250  
0.23900    2182888.50000000 1429558.50000000 3528423.75000000 591.79058838    37454.17578125  28867.68750000  
0.24000    2139074.75000000 1401387.12500000 3458111.25000000 585.07366943    36177.87890625  27825.96093750  
0.24100    2095985.37500000 1373645.75000000 3388922.25000000 578.86193848    34942.80468750  26816.30468750  
0.24200    2053592.00000000 1346311.50000000 3320778.25000000 573.13629150    33747.48828125  25838.03515625  
0.24300    2011885.87500000 1319396.12500000 3253726.75000000 567.88360596    32593.37500000  24891.48828125  
0.24400    1970894.87500000 1292906.62500000 3187746.75000000 563.10253906    31479.20117188  23976.48632812  
0.24500    1930595.75000000 1266830.75000000 3122879.25000000 558.78906250    30405.73046875  23093.38281250  
0.24600    1891007.37500000 1241178.87500000 3059121.75000000 554.93237305    29373.37890625  22241.99609375  
0.24700    1852169.12500000 1215978.12500000 2996470.25000000 551.53100586    28381.52929688  21422.80664062  
0.24800    1814031.50000000 1191201.50000000 2934944.00000000 548.55749512    27429.62304688  20634.84765625  
0.24900    1776633.87500000 1166855.50000000 2874538.25000000 546.00555420    26517.67578125  19878.38476562  
0.25000    1739949.87500000 1142965.25000000 2815281.00000000 543.87225342    25646.01171875  19153.61914062  
0.25100    1704011.25000000 1119500.87500000 2757116.00000000 542.12689209    24812.96484375  18459.26562500  
0.25200    1668828.25000000 1096491.75000000 2700194.50000000 540.78192139    24020.51953125  17797.11718750  
0.25300    1634384.50000000 1073937.50000000 2644386.75000000 539.79345703    23266.16796875  17164.81640625  
0.25400    1600684.50000000 1051824.62500000 2589755.50000000 539.16430664    22550.02734375  16562.82421875  
0.25500    1567724.25000000 1030165.25000000 2536253.25000000 538.86383057    21871.20312500  15990.25781250  
0.25600    1535520.37500000 1008968.68750000 2483937.00000000 538.88952637    21229.52734375  15447.36328125  
0.25700    1504055.37500000 988215.87500000 2432766.00000000 539.20678711    20623.92968750  14933.28613281  
0.25800    1473335.75000000 967925.81250000 2382782.75000000 539.81475830    20054.33398438  14447.65722656  
0.25900    1443368.50000000 948087.43750000 2333989.50000000 540.68591309    19519.05468750  13989.74804688  
0.26000    1414135.50000000 928714.00000000 2286324.25000000 541.79937744    19017.93359375  13558.91015625  
0.26100    1385636.50000000 909772.06250000 2239822.50000000 543.13806152    18548.96484375  13153.93164062  
0.26200    1357876.87500000 891303.87500000 2194491.50000000 544.68774414    18113.09570312  12775.40039062  
0.26300    1330852.50000000 873271.50000000 2150259.00000000 546.41687012    17707.33593750  12421.20214844  
0.26400    1304538.00000000 855689.06250000 2107183.75000000 548.32019043    17331.42382812  12091.29492188  
0.26500    1278940.62500000 838555.87500000 2065247.00000000 550.37445068    16985.20117188  11785.05566406  
0.26600    1254043.37500000 821849.81250000 2024414.25000000 552.55371094    16665.64257812  11500.57128906  
0.26700    1229846.00000000 805582.75000000 1984697.50000000 554.84655762    16373.43945312  11238.14746094  
0.26800    1206342.12500000 789753.93750000 1946046.75000000 557.23254395    16106.42968750  10996.66796875  
0.26900    1183503.50000000 774338.87500000 1908460.37500000 559.68237305    15862.89648438  10774.16699219  
0.27000    1161331.50000000 759345.06250000 1871951.37500000 562.19592285    15642.80957031  10571.00488281  
0.27100    1139794.50000000 744750.31250000 1836455.37500000 564.74188232    15444.40039062  10385.62597656  
0.27200    1118928.50000000 730587.12500000 1801995.62500000 567.32623291    15267.11132812  10218.03417969  
0.27300    1098650.75000000 716785.75000000 1768508.75000000 569.89587402    15107.88281250  10065.16113281  
0.27400    1078959.75000000 703364.43750000 1735945.75000000 572.44183350    14965.83300781  9926.68164062   
0.27500    1059897.87500000 690351.93750000 1704387.75000000 574.98913574    14842.42480469  9803.81250000   
0.27600    1041367.81250000 677674.93750000 1673681.62500000 577.47393799    14732.37500000  9692.44921875   
0.27700    1023423.75000000 665378.18750000 1643941.87500000 579.91662598    14638.04492188  9594.21972656   
0.27800    1006002.56250000 653423.18750000 1615019.00000000 582.28527832    14556.06542969  9506.45410156   
0.27900    989110.06250000 641808.62500000 1586952.37500000 584.58386230    14486.01367188  9429.26367188   
0.28000    972715.87500000 630514.50000000 1559683.87500000 586.78942871    14426.49414062  9361.13769531   
0.28100    956812.43750000 619542.00000000 1533220.75000000 588.89422607    14376.34472656  9301.43652344   
0.28200    941370.81250000 608877.37500000 1507515.00000000 590.89361572    14335.11132812  9249.46582031   
0.28300    926380.06250000 598512.68750000 1482537.37500000 592.78155518    14301.18945312  9204.13671875   
0.28400    911802.18750000 588417.62500000 1458237.37500000 594.54028320    14273.06054688  9164.38671875   
0.28500    897657.00000000 578608.25000000 1434637.00000000 596.17449951    14251.05273438  9130.23828125   
0.28600    883894.50000000 569053.56250000 1411656.75000000 597.67474365    14232.75976562  9099.88574219   
0.28700    870501.25000000 559755.62500000 1389295.00000000 599.03967285    14218.48730469  9073.46289062   
0.28800    857458.75000000 550687.87500000 1367516.25000000 600.25878906    14206.86621094  9050.00976562   
0.28900    844770.43750000 541872.62500000 1346310.12500000 601.34912109    14197.53320312  9029.24218750   
0.29000    832388.37500000 533251.18750000 1325606.75000000 602.28558350    14189.03515625  9009.70703125   
0.29100    820323.25000000 524859.12500000 1305457.50000000 603.08288574    14181.61425781  8992.01562500   
0.29200    808534.93750000 516654.40625000 1285747.62500000 603.73760986    14174.10058594  8974.70800781   
0.29300    797027.31250000 508643.81250000 1266514.25000000 604.25445557    14166.47460938  8958.07812500   
0.29400    785761.31250000 500803.46875000 1247684.75000000 604.62365723    14156.86035156  8940.75390625   
0.29500    774755.62500000 493141.71875000 1229290.12500000 604.87109375    14146.79882812  8923.47167969   
0.29600    763959.12500000 485631.28125000 1211245.87500000 604.98370361    14134.47167969  8905.18457031   
0.29700    753367.75000000 478273.09375000 1193561.00000000 604.95611572    14119.61132812  8885.41992188   
0.29800    742996.00000000 471064.96875000 1176228.25000000 604.82092285    14103.10253906  8865.00683594   
0.29900    732809.62500000 463992.37500000 1159235.87500000 604.57025146    14084.25976562  8843.00878906   
0.30000    722782.37500000 457036.78125000 1142520.25000000 604.20373535    14062.01464844  8819.05664062   
0.30100    712943.75000000 450216.71875000 1126104.37500000 603.73480225    14037.54882812  8793.67675781   
0.30200    703235.68750000 443499.18750000 1109929.00000000 603.16253662    14009.51171875  8766.13964844   
0.30300    693694.18750000 436897.46875000 1094033.87500000 602.51403809    13979.47460938  8737.16992188   
0.30400    684290.87500000 430400.40625000 1078379.12500000 601.78247070    13946.55078125  8706.52441406   
0.30500    675006.75000000 423994.71875000 1062936.25000000 600.97100830    13910.37500000  8673.57421875   
0.30600    665844.00000000 417674.81250000 1047705.12500000 600.09277344    13871.74609375  8638.90429688   
0.30700    656815.68750000 411459.68750000 1032690.31250000 599.16790771    13831.43554688  8603.19042969   
0.30800    647887.68750000 405317.12500000 1017866.93750000 598.18725586    13788.43359375  8565.62988281   
0.30900    639080.62500000 399266.53125000 1003251.50000000 597.17004395    13743.75488281  8527.08398438   
0.31000    630376.18750000 393290.62500000 988807.06250000 596.11883545    13697.64843750  8487.56347656   
0.31100    621762.00000000 387384.43750000 974523.18750000 595.03839111    13649.95117188  8446.84765625   
0.31200    613259.50000000 381561.06250000 960434.06250000 593.94897461    13601.53515625  8405.78515625   
0.31300    604860.37500000 375806.75000000 946510.25000000 592.84973145    13552.21582031  8364.33203125   
0.31400    596564.06250000 370133.53125000 932780.81250000 591.75811768    13503.39550781  8323.09765625   
0.31500    588356.18750000 364519.68750000 919188.81250000 590.65814209    13454.10351562  8281.60253906   
0.31600    580252.12500000 358985.06250000 905779.18750000 589.57952881    13405.51953125  8241.00683594   
0.31700    572255.43750000 353523.59375000 892542.75000000 588.52471924    13358.24511719  8201.23632812   
0.31800    564353.06250000 348129.15625000 879467.75000000 587.48248291    13311.85546875  8162.21728516   
0.31900    556566.75000000 342811.62500000 866591.81250000 586.49273682    13267.94140625  8125.16357422   
0.32000    548883.43750000 337568.28125000 853883.18750000 585.52496338    13225.74609375  8089.62597656   
0.32100    541308.12500000 332398.03125000 841355.87500000 584.60400391    13186.37109375  8056.20800781   
0.32200    533862.62500000 327311.03125000 829033.12500000 583.72967529    13150.18164062  8025.44140625   
0.32300    526510.50000000 322291.06250000 816870.12500000 582.89965820    13116.55078125  7996.62109375   
0.32400    519293.34375000 317360.15625000 804916.37500000 582.12835693    13087.29980469  7971.10058594   
0.32500    512200.96875000 312506.15625000 793170.68750000 581.40209961    13061.88867188  7948.68652344   
0.32600    505238.43750000 307742.65625000 781638.75000000 580.73974609    13041.18359375  7929.95654297   
0.32700    498418.40625000 303065.65625000 770327.00000000 580.14166260    13025.19335938  7915.03125000   
0.32800    491743.40625000 298484.43750000 759255.37500000 579.60076904    13014.59667969  7904.26171875   
0.32900    485196.53125000 293988.96875000 748396.50000000 579.11499023    13008.88867188  7897.32763672   
0.33000    478822.81250000 289596.00000000 737788.43750000 578.69708252    13009.27148438  7895.16796875   
0.33100    472569.03125000 285284.40625000 727388.68750000 578.32250977    13014.30175781  7896.76855469   
0.33200    466514.43750000 281098.84375000 717304.25000000 578.02374268    13026.92187500  7904.33056641   
0.33300    460601.68750000 277002.15625000 707446.87500000 577.77209473    13044.80957031  7916.01708984   
0.33400    454866.28125000 273018.87500000 697868.87500000 577.57580566    13069.40820312  7932.99414062   
0.33500    449295.34375000 269136.93750000 688552.62500000 577.43121338    13099.95019531  7954.85742188   
0.33600    443902.50000000 265368.18750000 679520.00000000 577.33715820    13137.03027344  7981.69384766   
0.33700    438684.18750000 261712.15625000 670765.37500000 577.27471924    13180.44042969  8013.78417969   
0.33800    433662.34375000 258174.23437500 662311.43750000 577.26092529    13230.87304688  8051.30664062   
0.33900    428808.68750000 254743.26562500 654131.37500000 577.28015137    13287.10742188  8093.55322266   
0.34000    424153.03125000 251439.29687500 646269.12500000 577.32733154    13350.00390625  8141.14843750   
0.34100    419687.00000000 248250.37500000 638692.25000000 577.40313721    13418.92968750  8193.80761719   
0.34200    415428.50000000 245193.39062500 631459.00000000 577.50207520    13494.76367188  8251.83398438   
0.34300    411346.40625000 242246.64062500 624495.18750000 577.60766602    13575.86621094  8314.14550781   
0.34400    407478.96875000 239435.51562500 617880.12500000 577.72802734    13663.50683594  8381.82714844   
0.34500    403789.93750000 236740.21875000 611552.25000000 577.85064697    13756.28125000  8453.60937500   
0.34600    400318.59375000 234178.70312500 605558.25000000 577.97802734    13855.13085938  8530.47167969   
0.34700    397022.09375000 231725.51562500 599844.06250000 578.07836914    13957.91113281  8610.70996094   
0.34800    393933.68750000 229407.64062500 594466.43750000 578.16693115    14066.10058594  8695.38769531   
0.34900    391030.34375000 227211.15625000 589387.37500000 578.24053955    14178.95019531  8783.87402344   
0.35000    388330.68750000 225135.60937500 584623.12500000 578.27807617    14295.48242188  8875.68164062   
0.35100    385829.40625000 223189.67187500 580178.68750000 578.29003906    14416.68750000  8971.29101562   
0.35200    383487.53125000 221347.50000000 575992.31250000 578.24877930    14540.26757812  9069.05371094   
0.35300    381347.81250000 219631.79687500 572121.18750000 578.16204834    14667.18261719  9169.67675781   
0.35400    379391.78125000 218035.07812500 568551.18750000 578.02337646    14796.98632812  9272.91699219   
0.35500    377613.37500000 216553.60937500 565266.06250000 577.82739258    14928.94335938  9378.17187500   
0.35600    375997.03125000 215174.84375000 562238.68750000 577.56787109    15062.39160156  9484.94531250   
0.35700    374558.25000000 213909.46875000 559488.12500000 577.23449707    15197.36035156  9593.02343750   
0.35800    373285.03125000 212755.54687500 557019.50000000 576.82934570    15333.20605469  9702.41601562   
0.35900    372167.40625000 211702.60937500 554797.50000000 576.34191895    15469.78515625  9812.56054688   
0.36000    371212.43750000 210755.12500000 552833.68750000 575.77874756    15606.59765625  9923.16796875   
0.36100    370388.06250000 209892.46875000 551084.06250000 575.11865234    15742.38085938  10033.35156250  
0.36200    369727.50000000 209140.93750000 549608.68750000 574.37628174    15878.31835938  10144.00683594  
0.36300    369172.50000000 208460.45312500 548301.81250000 573.52679443    16012.04296875  10253.20605469  
0.36400    368748.93750000 207865.76562500 547209.06250000 572.58001709    16143.85058594  10361.49902344  
0.36500    368443.03125000 207352.07812500 546309.25000000 571.53076172    16273.86914062  10468.36328125  
0.36600    368260.46875000 206920.32812500 545607.68750000 570.39013672    16401.80078125  10573.99316406  
0.36700    368168.46875000 206553.37500000 545062.31250000 569.12597656    16525.88281250  10677.12402344  
0.36800    368197.15625000 206268.79687500 544714.93750000 567.77172852    16647.82031250  10778.79980469  
0.36900    368307.62500000 206039.50000000 544506.25000000 566.30572510    16765.75781250  10877.67773438  
0.37000    368478.62500000 205855.03125000 544397.18750000 564.71997070    16878.77343750  10972.90429688  
0.37100    368726.43750000 205727.59375000 544422.00000000 563.02618408    16987.55078125  11065.21582031  
0.37200    369058.34375000 205659.29687500 544591.18750000 561.23260498    17092.44531250  11154.61132812  
0.37300    369430.50000000 205622.82812500 544833.87500000 559.32275391    17191.73828125  11240.02050781  
0.37400    369863.21875000 205632.75000000 545175.31250000 557.31378174    17286.04101562  11321.89746094  
0.37500    370332.15625000 205672.62500000 545589.18750000 555.19262695    17374.80859375  11399.55175781  
0.37600    370844.96875000 205749.82812500 546076.31250000 552.96649170    17457.81640625  11473.00195312  
0.37700    371370.03125000 205838.87500000 546596.56250000 550.63519287    17534.58984375  11541.72753906  
0.37800    371921.46875000 205951.59375000 547163.43750000 548.20550537    17605.21289062  11605.93457031  
0.37900    372495.43750000 206089.37500000 547785.25000000 545.68041992    17670.31054688  11665.94531250  
0.38000    373064.78125000 206228.59375000 548397.68750000 543.05255127    17728.19921875  11720.60546875  
0.38100    373622.40625000 206369.95312500 549002.93750000 540.33453369    17779.19726562  11769.98632812  
0.38200    374183.37500000 206522.07812500 549629.25000000 537.53186035    17823.98828125  11814.87597656  
0.38300    374716.75000000 206663.23437500 550212.00000000 534.63739014    17861.66992188  11854.06542969  
0.38400    375248.03125000 206808.64062500 550808.81250000 531.66418457    17893.07031250  11888.77539062  
0.38500    375733.09375000 206932.45312500 551332.25000000 528.61492920    17916.83789062  11917.53906250  
0.38600    376201.31250000 207057.90625000 551851.50000000 525.49609375    17934.76171875  11941.81347656  
0.38700    376617.62500000 207153.40625000 552285.81250000 522.29504395    17944.97265625  11960.10156250  
0.38800    376993.75000000 207231.54687500 552673.18750000 519.04064941    17948.77734375  11973.53417969  
0.38900    377320.53125000 207284.68750000 552985.18750000 515.72174072    17945.59570312  11981.55664062  
0.39000    377611.43750000 207324.60937500 553248.31250000 512.35583496    17936.59179688  11985.19140625  
0.39100    377833.25000000 207325.23437500 553412.18750000 508.93231201    17920.60742188  11983.25292969  
0.39200    378003.28125000 207301.26562500 553498.75000000 505.46862793    17898.46093750  11976.53710938  
0.39300    378102.21875000 207239.82812500 553483.25000000 501.95410156    17869.48046875  11964.80664062  
0.39400    378156.87500000 207153.12500000 553397.87500000 498.41818237    17835.50195312  11948.88085938  
0.39500    378122.25000000 207019.64062500 553187.37500000 494.84576416    17794.81445312  11927.79296875  
0.39600    378020.68750000 206848.06250000 552874.06250000 491.24197388    17748.18945312  11902.31250000  
0.39700    377849.84375000 206636.82812500 552459.00000000 487.62384033    17696.40039062  11872.49316406  
0.39800    377610.87500000 206392.79687500 551940.87500000 483.99057007    17639.61328125  11838.80175781  
0.39900    377296.43750000 206098.37500000 551303.25000000 480.34652710    17577.39648438  11800.93359375  
0.40000    376901.15625000 205764.18750000 550552.06250000 476.69311523    17510.33203125  11759.28027344  
0.40100    376431.40625000 205385.84375000 549684.56250000 473.03558350    17438.56054688  11713.88476562  
0.40200    375896.40625000 204971.45312500 548716.25000000 469.38262939    17362.95703125  11665.26269531  
0.40300    375276.50000000 204507.48437500 547623.43750000 465.73208618    17282.47851562  11613.10839844  
0.40400    374582.71875000 204001.95312500 546418.25000000 462.09149170    17198.71093750  11558.14257812  
0.40500    373820.96875000 203455.09375000 545105.18750000 458.47192383    17111.19921875  11500.28613281  
0.40600    372990.62500000 202869.07812500 543688.62500000 454.86566162    17020.65039062  11440.05371094  
0.40700    372087.25000000 202238.76562500 542156.18750000 451.28674316    16926.94726562  11377.18652344  
0.40800    371111.50000000 201567.71875000 540515.18750000 447.72753906    16830.21093750  11312.06640625  
0.40900    370064.50000000 200854.26562500 538768.12500000 444.19631958    16731.01562500  11244.84667969  
0.41000    368966.46875000 200110.20312500 536941.87500000 440.70370483    16630.28515625  11176.29785156  
0.41100    367793.84375000 199324.14062500 535000.18750000 437.23486328    16526.72460938  11105.69531250  
0.41200    366556.96875000 198497.25000000 532958.43750000 433.80346680    16421.45117188  11033.57910156  
0.41300    365276.81250000 197645.17187500 530849.50000000 430.42297363    16315.24707031  10960.78222656  
0.41400    363929.21875000 196752.01562500 528629.12500000 427.07208252    16207.36816406  10886.57226562  
0.41500    362540.53125000 195836.35937500 526356.56250000 423.77313232    16098.86816406  10811.89062500  
0.41600    361083.78125000 194877.00000000 523975.68750000 420.51062012    15988.78906250  10735.89550781  
0.41700    359602.03125000 193903.81250000 521547.78125000 417.30206299    15878.96289062  10660.12109375  
0.41800    358084.03125000 192909.46875000 519072.34375000 414.14657593    15769.23730469  10584.44433594  
0.41900    356496.50000000 191870.68750000 516483.12500000 411.02377319    15657.81542969  10507.39160156  
0.42000    354893.93750000 190822.92187500 513869.43750000 407.96823120    15547.48242188  10431.16308594  
0.42100    353261.93750000 189760.20312500 511213.71875000 404.96347046    15437.61328125  10355.29785156  
0.42200    351602.15625000 188677.31250000 508507.37500000 402.01074219    15328.01269531  10279.66894531  
0.42300    349902.40625000 187571.39062500 505749.78125000 399.10836792    15218.48144531  10204.08007812  
0.42400    348188.15625000 186456.04687500 502959.62500000 396.26135254    15109.94042969  10129.27832031  
0.42500    346455.28125000 185329.43750000 500147.00000000 393.47277832    15002.37500000  10055.23730469  
0.42600    344699.03125000 184186.21875000 497290.15625000 390.73144531    14895.56640625  9981.76953125   
0.42700    342944.40625000 183046.28125000 494440.40625000 388.05578613    14790.28613281  9909.66796875   
0.42800    341169.43750000 181893.64062500 491560.53125000 385.43167114    14685.87402344  9838.03906250   
0.42900    339407.62500000 180745.93750000 488696.68750000 382.86663818    14583.24121094  9768.06835938   
0.43000    337631.71875000 179591.25000000 485812.40625000 380.35623169    14481.78222656  9699.05175781   
0.43100    335840.68750000 178427.17187500 482902.56250000 377.89303589    14381.05175781  9630.58300781   
0.43200    334074.09375000 177277.68750000 480031.75000000 375.49411011    14282.75585938  9564.06542969   
0.43300    332302.15625000 176125.87500000 477155.25000000 373.14660645    14185.60156250  9498.59082031   
0.43400    330541.96875000 174981.06250000 474299.09375000 370.85372925    14090.27148438  9434.46093750   
0.43500    328787.43750000 173838.56250000 471444.28125000 368.61105347    13996.24609375  9371.54785156   
0.43600    327061.96875000 172714.39062500 468640.09375000 366.43704224    13904.70507812  9310.53320312   
0.43700    325333.28125000 171586.92187500 465833.12500000 364.29803467    13813.94238281  9250.29589844   
0.43800    323617.96875000 170468.79687500 463038.62500000 362.21749878    13724.77734375  9191.39062500   
0.43900    321935.40625000 169370.75000000 460303.56250000 360.19281006    13637.84082031  9134.31542969   
0.44000    320269.15625000 168282.35937500 457588.28125000 358.21945190    13552.28808594  9078.49707031   
0.44100    318627.65625000 167209.64062500 454914.09375000 356.29321289    13468.55371094  9023.95117188   
0.44200    317007.53125000 166149.62500000 452276.90625000 354.41864014    13386.29589844  8970.83105469   
0.44300    315413.12500000 165107.21875000 449678.96875000 352.59472656    13305.68164062  8919.00488281   
0.44400    313845.90625000 164081.21875000 447123.06250000 350.81994629    13226.54003906  8868.63183594   
0.44500    312286.43750000 163059.31250000 444580.25000000 349.08477783    13148.24511719  8818.75878906   
0.44600    310761.00000000 162058.60937500 442095.46875000 347.40161133    13071.79394531  8770.42871094   
0.44700    309278.09375000 161086.00000000 439671.53125000 345.76602173    12997.00976562  8723.61523438   
0.44800    307804.15625000 160118.12500000 437266.03125000 344.17330933    12922.96972656  8677.40527344   
0.44900    306376.84375000 159180.43750000 434934.03125000 342.63681030    12850.80273438  8632.76367188   
0.45000    304973.28125000 158256.79687500 432640.40625000 341.14169312    12779.87890625  8589.16894531   
0.45100    303582.75000000 157343.85937500 430368.93750000 339.68035889    12709.20410156  8545.95410156   
0.45200    302233.46875000 156454.45312500 428159.34375000 338.26901245    12640.15625000  8503.92968750   
0.45300    300897.56250000 155578.14062500 425980.31250000 336.89599609    12571.70800781  8462.56152344   
0.45400    299606.21875000 154723.65625000 423858.40625000 335.56677246    12504.38183594  8422.12988281   
0.45500    298332.71875000 153887.31250000 421777.15625000 334.28152466    12437.98730469  8382.50390625   
0.45600    297079.78125000 153062.54687500 419728.25000000 333.03369141    12372.09667969  8343.27050781   
0.45700    295860.06250000 152258.95312500 417729.96875000 331.82904053    12307.15332031  8304.90332031   
0.45800    294654.03125000 151463.93750000 415755.40625000 330.65911865    12242.45605469  8266.75781250   
0.45900    293470.93750000 150686.04687500 413818.78125000 329.52743530    12178.21484375  8229.05273438   
0.46000    292325.09375000 149931.25000000 411940.84375000 328.43951416    12115.16308594  8192.29882812   
0.46100    291177.12500000 149174.96875000 410061.84375000 327.37625122    12051.52148438  8155.13916016   
0.46200    290065.68750000 148445.57812500 408246.06250000 326.36068726    11989.08984375  8118.88525391   
0.46300    288968.46875000 147721.42187500 406444.65625000 325.37622070    11926.51757812  8082.58740234   
0.46400    287873.09375000 147005.79687500 404658.78125000 324.42178345    11863.89355469  8046.38037109   
0.46500    286812.06250000 146307.68750000 402920.75000000 323.50909424    11801.94433594  8010.63720703   
0.46600    285751.87500000 145614.34375000 401190.31250000 322.62463379    11739.67285156  7974.75292969   
0.46700    284698.81250000 144926.92187500 399473.21875000 321.76638794    11677.31054688  7938.67041016   
0.46800    283678.03125000 144260.01562500 397803.00000000 320.94610596    11615.78906250  7903.23974609   
0.46900    282645.18750000 143587.71875000 396120.93750000 320.15145874    11553.44726562  7867.16796875   
0.47000    281625.62500000 142923.50000000 394458.75000000 319.38696289    11491.05761719  7831.20166016   
0.47100    280612.93750000 142268.09375000 392813.59375000 318.65081787    11428.81152344  7795.16650391   
0.47200    279608.46875000 141615.64062500 391179.81250000 317.94192505    11366.38671875  7759.02490234   
0.47300    278609.25000000 140974.12500000 389560.18750000 317.25936890    11303.95605469  7722.87548828   
0.47400    277595.93750000 140320.20312500 387918.18750000 316.59664917    11240.62500000  7685.94873047   
0.47500    276594.96875000 139679.79687500 386299.56250000 315.96057129    11177.63085938  7649.25195312   
0.47600    275602.56250000 139044.31250000 384695.15625000 315.35256958    11114.72949219  7612.71826172   
0.47700    274585.50000000 138394.14062500 383051.87500000 314.75195312    11050.42285156  7574.86962891   
0.47800    273573.68750000 137752.45312500 381425.03125000 314.18115234    10986.56835938  7537.34570312   
0.47900    272568.28125000 137114.59375000 379809.18750000 313.63018799    10922.61328125  7499.74707031   
0.48000    271538.18750000 136465.85937500 378159.09375000 313.09008789    10857.74609375  7461.38281250   
0.48100    270529.59375000 135830.78125000 376541.12500000 312.57653809    10793.52441406  7423.42871094   
0.48200    269475.56250000 135170.48437500 374859.03125000 312.06152344    10727.71191406  7384.09326172   
0.48300    268424.62500000 134513.87500000 373179.25000000 311.56961060    10662.00195312  7344.83300781   
0.48400    267371.00000000 133856.85937500 371500.46875000 311.08654785    10596.26367188  7305.51416016   
0.48500    266304.37500000 133195.50000000 369802.53125000 310.61813354    10530.01464844  7265.70898438   
0.48600    265231.12500000 132532.20312500 368100.25000000 310.16320801    10463.87402344  7225.85449219   
0.48700    264141.25000000 131862.09375000 366375.68750000 309.71020508    10397.10644531  7185.48779297   
0.48800    263024.75000000 131176.64062500 364611.37500000 309.26055908    10329.62597656  7144.46044922   
0.48900    261907.92187500 130492.92968750 362846.37500000 308.82067871    10262.28125000  7103.38525391   
0.49000    260775.71875000 129802.89062500 361064.09375000 308.38677979    10194.79394531  7062.16455078   
0.49100    259639.03125000 129113.77343750 359276.50000000 307.95840454    10127.34570312  7020.97851562   
0.49200    258471.65625000 128407.59375000 357446.03125000 307.53103638    10059.10253906  6979.02148438   
0.49300    257295.64062500 127697.26562500 355602.06250000 307.10180664    9990.89453125   6936.92968750   
0.49400    256107.10937500 126982.92968750 353742.59375000 306.67279053    9922.55761719   6894.78613281   
0.49500    254895.70312500 126257.75781250 351853.40625000 306.24200439    9853.90234375   6852.22656250   
0.49600    253681.84375000 125534.50000000 349966.00000000 305.81451416    9785.54199219   6809.89794922   
0.49700    252440.07812500 124796.17968750 348037.43750000 305.37988281    9716.66601562   6766.99267578   
0.49800    251196.25000000 124058.50000000 346102.12500000 304.94375610    9648.10742188   6724.26416016   
0.49900    249923.31250000 123307.23437500 344133.09375000 304.49810791    9579.05273438   6681.03222656   
0.50000    248649.42187500 122556.45312500 342160.00000000 304.05563354    9510.31933594   6638.04589844   
